 
# QPROP Version 1.22
# 
# Helice24x15                                                                     
# 
# Speed-400 3321 (6V) direct drive                                                
#   0.48000E-01  motor parameter 1 ,  R  (Ohms) 
#    1.3000      motor parameter 2 ,  Io (Amps) 
#    190.00      motor parameter 3 ,  Kv (rpm/Vo
# 
#   rho =  1.2250     kg/m^3
#   mu  = 0.17800E-04 kg/m-s
#   a   =  340.00     m/s   
# 
#  1         2        3          4          5         6            7         8       9        10        11        12          13        14        15      16          17           18      19
# 
#  V(m/s)    rpm      Dbeta      T(N)       Q(N-m)    Pshaft(W)    Volts     Amps    effmot   effprop   adv       CT          CP        DV(m/s)   eff     Pelec       Pprop        cl_avg  cd_avg
  -20.000   2000.     -4.000   57.48      0.7179       150.3      11.274   15.5832   0.8558  -7.6465  -0.00032  0.8159E-13  0.3371E-17  40.0000  -6.5436   175.7      -1150.       1.4390  0.2278    
  -19.000   2000.     -4.000   56.86      0.7406       155.1      11.296   16.0361   0.8563  -6.9646  -0.00030  0.8071E-13  0.3478E-17  38.0000  -5.9639   181.1      -1080.       1.4433  0.2160    
  -18.000   2000.     -4.000   56.27      0.7667       160.6      11.321   16.5543   0.8568  -6.3081  -0.00028  0.7987E-13  0.3600E-17  36.0000  -5.4048   187.4      -1013.       1.4476  0.2042    
  -17.000   2000.     -4.000   55.72      0.7961       166.7      11.349   17.1404   0.8572  -5.6813  -0.00027  0.7909E-13  0.3739E-17  34.0000  -4.8698   194.5      -947.3       1.4518  0.1926    
  -16.000   2000.     -4.000   55.21      0.8291       173.7      11.381   17.7970   0.8574  -5.0873  -0.00025  0.7837E-13  0.3894E-17  32.0000  -4.3617   202.5      -883.4       1.4559  0.1812    
  -15.000   2000.     -4.000   54.74      0.8658       181.3      11.416   18.5266   0.8574  -4.5283  -0.00024  0.7770E-13  0.4066E-17  30.0000  -3.8825   211.5      -821.1       1.4599  0.1700    
  -14.000   2000.     -4.000   54.31      0.9063       189.8      11.454   19.3322   0.8572  -4.0056  -0.00022  0.7709E-13  0.4256E-17  28.0000  -3.4336   221.4      -760.3       1.4638  0.1590    
  -13.000   2000.     -4.000   46.16       1.305       273.4      11.835   27.2724   0.8470  -2.1949  -0.00021  0.6552E-13  0.6130E-17  26.0000  -1.8590   322.8      -600.1       1.3814  0.6910E-01
  -12.000   2000.     -4.000   45.64       1.313       275.0      11.843   27.4227   0.8467  -1.9920  -0.00019  0.6479E-13  0.6165E-17  24.0000  -1.6866   324.8      -547.7       1.3687  0.6248E-01
  -11.000   2000.     -4.000   45.15       1.330       278.5      11.859   27.7556   0.8461  -1.7834  -0.00017  0.6408E-13  0.6244E-17  22.0000  -1.5089   329.1      -496.6       1.3531  0.5942E-01
  -10.000   2000.     -4.000   44.56       1.340       280.6      11.868   27.9599   0.8457  -1.5878  -0.00016  0.6325E-13  0.6292E-17  20.0000  -1.3428   331.8      -445.6       1.3361  0.5406E-01
   -9.000   2000.     -4.000   43.96       1.357       284.2      11.885   28.3011   0.8450  -1.3921  -0.00014  0.6240E-13  0.6373E-17  18.0000  -1.1763   336.4      -395.7       1.3166  0.5120E-01
   -8.000   2000.     -4.000   43.28       1.369       286.7      11.896   28.5341   0.8446  -1.2079  -0.00013  0.6144E-13  0.6428E-17  16.0000  -1.0201   339.4      -346.3       1.2943  0.4763E-01
   -7.000   2000.     -4.000   42.50       1.380       289.0      11.906   28.7536   0.8441  -1.0296  -0.00011  0.6033E-13  0.6479E-17  14.0000  -0.8691   342.4      -297.5       1.2697  0.4328E-01
   -6.000   2000.     -4.000   41.68       1.391       291.3      11.917   28.9761   0.8437  -0.8584  -0.00009  0.5916E-13  0.6532E-17  12.0000  -0.7242   345.3      -250.1       1.2423  0.3999E-01
   -5.000   2000.     -4.000   40.75       1.403       293.8      11.929   29.2148   0.8432  -0.6935  -0.00008  0.5784E-13  0.6588E-17  10.0000  -0.5847   348.5      -203.8       1.2117  0.3732E-01
   -4.000   2000.     -4.000   39.72       1.410       295.3      11.935   29.3532   0.8429  -0.5381  -0.00006  0.5638E-13  0.6621E-17   8.0000  -0.4535   350.3      -158.9       1.1776  0.3420E-01
   -3.000   2000.     -4.000   38.59       1.415       296.3      11.940   29.4451   0.8427  -0.3907  -0.00005  0.5477E-13  0.6643E-17   6.0000  -0.3293   351.6      -115.8       1.1401  0.3126E-01
   -2.000   2000.     -4.000   37.33       1.416       296.6      11.941   29.4744   0.8426  -0.2518  -0.00003  0.5299E-13  0.6650E-17   4.0001  -0.2122   352.0      -74.67       1.0989  0.2854E-01
   -1.000   2000.     -4.000   35.95       1.413       296.0      11.939   29.4207   0.8428  -0.1215  -0.00002  0.5103E-13  0.6637E-17   2.0001  -0.1024   351.2      -35.95       1.0538  0.2610E-01
    0.000   2000.     -4.000   34.43       1.406       294.4      11.931   29.2667   0.8431   0.0000   0.00000  0.4887E-13  0.6601E-17   0.0140   0.0000   349.2       0.000       1.0045  0.2400E-01
    1.000   2000.     -4.000   32.77       1.392       291.5      11.918   28.9949   0.8436   0.1124   0.00002  0.4651E-13  0.6536E-17   0.0001   0.0948   345.6       32.77       0.9508  0.2224E-01
    2.000   2000.     -4.000   30.95       1.372       287.3      11.899   28.5980   0.8444   0.2154   0.00003  0.4393E-13  0.6443E-17   0.0000   0.1819   340.3       61.90       0.8930  0.2111E-01
    3.000   2000.     -4.000   28.98       1.343       281.3      11.871   28.0245   0.8456   0.3091   0.00005  0.4114E-13  0.6307E-17   0.0000   0.2613   332.7       86.94       0.8306  0.2005E-01
    4.000   2000.     -4.000   26.83       1.305       273.4      11.835   27.2707   0.8470   0.3926   0.00006  0.3808E-13  0.6129E-17   0.0000   0.3325   322.8       107.3       0.7634  0.1982E-01
    5.000   2000.     -4.000   24.54       1.259       263.7      11.791   26.3548   0.8487   0.4652   0.00008  0.3483E-13  0.5913E-17   0.0000   0.3948   310.8       122.7       0.6930  0.2011E-01
    6.000   2000.     -4.000   22.10       1.204       252.2      11.739   25.2581   0.8506   0.5258   0.00009  0.3137E-13  0.5655E-17   0.0000   0.4473   296.5       132.6       0.6196  0.2099E-01
    7.000   2000.     -4.000   19.51       1.139       238.5      11.676   23.9602   0.8526   0.5727   0.00011  0.2770E-13  0.5348E-17   0.0000   0.4883   279.8       136.6       0.5431  0.2255E-01
    8.000   2000.     -4.000   16.79       1.063       222.7      11.604   22.4536   0.8546   0.6031   0.00013  0.2383E-13  0.4993E-17   0.0000   0.5154   260.6       134.3       0.4643  0.2495E-01
    9.000   2000.     -4.000   13.91      0.9754       204.3      11.520   20.7066   0.8564   0.6127   0.00014  0.1974E-13  0.4580E-17   0.0000   0.5247   238.5       125.2       0.3831  0.2812E-01
   10.000   2000.     -4.000   10.86      0.8741       183.1      11.424   18.6916   0.8574   0.5934   0.00016  0.1542E-13  0.4105E-17   0.0000   0.5088   213.5       108.6       0.2995  0.3217E-01
   11.000   2000.     -4.000   7.654      0.7587       158.9      11.313   16.3956   0.8567   0.5299   0.00017  0.1086E-13  0.3563E-17   0.0000   0.4539   185.5       84.20       0.2138  0.3731E-01
   12.000   2000.     -4.000   4.308      0.6286       131.7      11.189   13.8077   0.8522   0.3926   0.00019  0.6114E-14  0.2952E-17   0.0000   0.3346   154.5       51.69       0.1272  0.4325E-01
   13.000   2000.     -4.000  0.7826      0.4821       101.0      11.049   10.8921   0.8390   0.1008   0.00021  0.1111E-14  0.2264E-17   0.0000   0.0845   120.3       10.17       0.0389  0.5042E-01
   14.000   2000.     -4.000  -1.234      0.6262       131.2      11.187   13.7598   0.8521  -0.1318   0.00022 -0.1752E-14  0.2941E-17   0.0000  -0.1123   153.9      -17.28       0.0000  0.8025E-01
   15.000   2000.     -4.000  -1.545      0.7123       149.2      11.269   15.4716   0.8556  -0.1554   0.00024 -0.2193E-14  0.3345E-17   0.0000  -0.1329   174.3      -23.17       0.0000  0.9185E-01
   16.000   2000.     -4.000  -1.923      0.8116       170.0      11.364   17.4485   0.8573  -0.1810   0.00025 -0.2729E-14  0.3811E-17   0.0000  -0.1552   198.3      -30.77       0.0000  0.1052    
   17.000   2000.     -4.000  -2.373      0.9238       193.5      11.471   19.6802   0.8570  -0.2085   0.00027 -0.3368E-14  0.4338E-17   0.0000  -0.1787   225.8      -40.34       0.0000  0.1201    
   18.000   2000.     -4.000  -2.899       1.048       219.5      11.590   22.1564   0.8549  -0.2377   0.00028 -0.4115E-14  0.4922E-17   0.0000  -0.2032   256.8      -52.19       0.0000  0.1365    
   19.000   2000.     -4.000  -3.506       1.184       248.1      11.720   24.8670   0.8512  -0.2685   0.00030 -0.4976E-14  0.5562E-17   0.0000  -0.2286   291.4      -66.61       0.0000  0.1541    
   20.000   2000.     -4.000  -4.196       1.332       279.0      11.861   27.8017   0.8460  -0.3008   0.00032 -0.5956E-14  0.6255E-17   0.0000  -0.2545   329.8      -83.92       0.0000  0.1729    

  -20.000   2000.     -3.000   56.90      0.8841       185.2      11.433   18.8911   0.8573  -6.1457  -0.00032  0.8076E-13  0.4152E-17  40.0000  -5.2689   216.0      -1138.       1.4359  0.2366    
  -19.000   2000.     -3.000   56.30      0.9030       189.1      11.451   19.2661   0.8572  -5.6558  -0.00030  0.7991E-13  0.4240E-17  38.0000  -4.8483   220.6      -1070.       1.4403  0.2245    
  -18.000   2000.     -3.000   55.73      0.9252       193.8      11.472   19.7080   0.8570  -5.1769  -0.00028  0.7910E-13  0.4345E-17  36.0000  -4.4367   226.1      -1003.       1.4448  0.2125    
  -17.000   2000.     -3.000   55.20      0.9509       199.1      11.497   20.2191   0.8567  -4.7119  -0.00027  0.7835E-13  0.4465E-17  34.0000  -4.0368   232.5      -938.4       1.4491  0.2006    
  -16.000   2000.     -3.000   54.71      0.9802       205.3      11.525   20.8021   0.8563  -4.2638  -0.00025  0.7765E-13  0.4603E-17  32.0000  -3.6510   239.7      -875.3       1.4533  0.1889    
  -15.000   2000.     -3.000   54.25       1.013       212.2      11.556   21.4597   0.8557  -3.8348  -0.00024  0.7700E-13  0.4758E-17  30.0000  -3.2814   248.0      -813.8       1.4574  0.1774    
  -14.000   2000.     -3.000   48.99       1.437       301.0      11.961   29.8956   0.8418  -2.2785  -0.00022  0.6953E-13  0.6749E-17  28.0000  -1.9180   357.6      -685.8       1.4393  0.1029    
  -13.000   2000.     -3.000   47.80       1.425       298.4      11.949   29.6487   0.8423  -2.0824  -0.00021  0.6785E-13  0.6691E-17  26.0000  -1.7540   354.3      -621.4       1.4377  0.7549E-01
  -12.000   2000.     -3.000   47.45       1.439       301.3      11.963   29.9221   0.8417  -1.8899  -0.00019  0.6735E-13  0.6755E-17  24.0000  -1.5907   357.9      -569.4       1.4268  0.7121E-01
  -11.000   2000.     -3.000   46.99       1.457       305.1      11.980   30.2876   0.8409  -1.6941  -0.00017  0.6670E-13  0.6842E-17  22.0000  -1.4246   362.8      -516.9       1.4146  0.6609E-01
  -10.000   2000.     -3.000   46.53       1.472       308.2      11.994   30.5785   0.8403  -1.5098  -0.00016  0.6605E-13  0.6910E-17  20.0000  -1.2687   366.8      -465.3       1.3993  0.6202E-01
   -9.000   2000.     -3.000   46.01       1.487       311.4      12.009   30.8812   0.8397  -1.3298  -0.00014  0.6530E-13  0.6982E-17  18.0000  -1.1166   370.8      -414.1       1.3820  0.5794E-01
   -8.000   2000.     -3.000   45.42       1.502       314.6      12.023   31.1870   0.8390  -1.1549  -0.00013  0.6446E-13  0.7054E-17  16.0000  -0.9690   375.0      -363.3       1.3623  0.5388E-01
   -7.000   2000.     -3.000   44.71       1.520       318.4      12.041   31.5509   0.8382  -0.9828  -0.00011  0.6346E-13  0.7140E-17  14.0000  -0.8238   379.9      -313.0       1.3399  0.4975E-01
   -6.000   2000.     -3.000   43.94       1.534       321.2      12.053   31.8136   0.8376  -0.8208  -0.00009  0.6237E-13  0.7202E-17  12.0000  -0.6875   383.5      -263.6       1.3141  0.4589E-01
   -5.000   2000.     -3.000   43.07       1.545       323.7      12.065   32.0492   0.8371  -0.6654  -0.00008  0.6114E-13  0.7257E-17  10.0000  -0.5570   386.7      -215.4       1.2850  0.4211E-01
   -4.000   2000.     -3.000   42.10       1.555       325.7      12.074   32.2449   0.8367  -0.5170  -0.00006  0.5976E-13  0.7303E-17   8.0000  -0.4326   389.3      -168.4       1.2524  0.3844E-01
   -3.000   2000.     -3.000   41.02       1.562       327.2      12.081   32.3867   0.8363  -0.3760  -0.00005  0.5822E-13  0.7337E-17   6.0000  -0.3145   391.3      -123.0       1.2161  0.3495E-01
   -2.000   2000.     -3.000   39.80       1.566       328.0      12.084   32.4601   0.8362  -0.2427  -0.00003  0.5650E-13  0.7354E-17   4.0001  -0.2029   392.3      -79.61       1.1758  0.3169E-01
   -1.000   2000.     -3.000   38.46       1.565       327.9      12.084   32.4480   0.8362  -0.1173  -0.00002  0.5459E-13  0.7351E-17   2.0001  -0.0981   392.1      -38.46       1.1314  0.2871E-01
    0.000   2000.     -3.000   36.98       1.559       326.6      12.078   32.3283   0.8365   0.0000   0.00000  0.5248E-13  0.7323E-17   0.0145   0.0000   390.5       0.000       1.0825  0.2607E-01
    1.000   2000.     -3.000   35.34       1.547       324.0      12.066   32.0757   0.8370   0.1091   0.00002  0.5016E-13  0.7264E-17   0.0001   0.0913   387.0       35.34       1.0289  0.2379E-01
    2.000   2000.     -3.000   33.54       1.527       319.8      12.047   31.6848   0.8379   0.2098   0.00003  0.4761E-13  0.7171E-17   0.0000   0.1758   381.7       67.09       0.9709  0.2199E-01
    3.000   2000.     -3.000   31.60       1.500       314.1      12.021   31.1371   0.8391   0.3019   0.00005  0.4486E-13  0.7042E-17   0.0000   0.2533   374.3       94.81       0.9087  0.2057E-01
    4.000   2000.     -3.000   29.48       1.461       306.1      11.984   30.3763   0.8407   0.3852   0.00006  0.4184E-13  0.6862E-17   0.0000   0.3239   364.0       117.9       0.8412  0.1974E-01
    5.000   2000.     -3.000   27.20       1.414       296.2      11.939   29.4388   0.8427   0.4592   0.00008  0.3861E-13  0.6641E-17   0.0000   0.3869   351.5       136.0       0.7701  0.1951E-01
    6.000   2000.     -3.000   24.79       1.358       284.4      11.885   28.3160   0.8450   0.5229   0.00009  0.3518E-13  0.6376E-17   0.0000   0.4419   336.5       148.7       0.6961  0.1984E-01
    7.000   2000.     -3.000   22.22       1.291       270.4      11.822   26.9897   0.8475   0.5753   0.00011  0.3154E-13  0.6063E-17   0.0000   0.4876   319.1       155.6       0.6191  0.2082E-01
    8.000   2000.     -3.000   19.52       1.214       254.2      11.748   25.4487   0.8502   0.6143   0.00013  0.2771E-13  0.5699E-17   0.0000   0.5223   299.0       156.2       0.5396  0.2262E-01
    9.000   2000.     -3.000   16.68       1.124       235.5      11.663   23.6716   0.8530   0.6374   0.00014  0.2367E-13  0.5280E-17   0.0000   0.5437   276.1       150.1       0.4581  0.2515E-01
   10.000   2000.     -3.000   13.68       1.022       214.0      11.564   21.6272   0.8555   0.6392   0.00016  0.1941E-13  0.4798E-17   0.0000   0.5468   250.1       136.8       0.3741  0.2856E-01
   11.000   2000.     -3.000   10.51      0.9042       189.4      11.452   19.2902   0.8572   0.6106   0.00017  0.1492E-13  0.4246E-17   0.0000   0.5235   220.9       115.6       0.2881  0.3288E-01
   12.000   2000.     -3.000   7.208      0.7726       161.8      11.327   16.6731   0.8569   0.5345   0.00019  0.1023E-13  0.3628E-17   0.0000   0.4580   188.9       86.49       0.2010  0.3831E-01
   13.000   2000.     -3.000   3.748      0.6242       130.7      11.185   13.7203   0.8519   0.3727   0.00021  0.5320E-14  0.2931E-17   0.0000   0.3175   153.5       48.72       0.1127  0.4453E-01
   14.000   2000.     -3.000  0.1060      0.4697       98.37      11.037   10.6454   0.8372   0.0151   0.00022  0.1505E-15  0.2206E-17   0.0000   0.0126   117.5       1.484       0.0243  0.5420E-01
   15.000   2000.     -3.000  -1.395      0.6406       134.2      11.201   14.0459   0.8528  -0.1559   0.00024 -0.1979E-14  0.3008E-17   0.0000  -0.1330   157.3      -20.92       0.0000  0.8272E-01
   16.000   2000.     -3.000  -1.734      0.7284       152.6      11.284   15.7931   0.8560  -0.1819   0.00025 -0.2461E-14  0.3421E-17   0.0000  -0.1557   178.2      -27.75       0.0000  0.9461E-01
   17.000   2000.     -3.000  -2.143      0.8291       173.7      11.381   17.7972   0.8574  -0.2098   0.00027 -0.3041E-14  0.3894E-17   0.0000  -0.1798   202.5      -36.42       0.0000  0.1081    
   18.000   2000.     -3.000  -2.624      0.9423       197.3      11.489   20.0482   0.8568  -0.2394   0.00028 -0.3725E-14  0.4425E-17   0.0000  -0.2051   230.3      -47.24       0.0000  0.1231    
   19.000   2000.     -3.000  -3.183       1.067       223.5      11.608   22.5359   0.8545  -0.2706   0.00030 -0.4518E-14  0.5012E-17   0.0000  -0.2312   261.6      -60.48       0.0000  0.1395    
   20.000   2000.     -3.000  -3.822       1.204       252.1      11.738   25.2504   0.8506  -0.3032   0.00032 -0.5425E-14  0.5653E-17   0.0000  -0.2579   296.4      -76.45       0.0000  0.1570    

  -20.000   2000.     -2.000   56.30       1.050       219.8      11.591   22.1817   0.8549  -5.1225  -0.00032  0.7991E-13  0.4928E-17  40.0000  -4.3793   257.1      -1126.       1.4326  0.2456    
  -19.000   2000.     -2.000   55.71       1.065       223.0      11.605   22.4813   0.8546  -4.7477  -0.00030  0.7908E-13  0.4999E-17  38.0000  -4.0573   260.9      -1059.       1.4373  0.2332    
  -18.000   2000.     -2.000   55.17       1.083       226.8      11.623   22.8491   0.8541  -4.3776  -0.00028  0.7830E-13  0.5086E-17  36.0000  -3.7390   265.6      -993.0       1.4418  0.2210    
  -17.000   2000.     -2.000   54.65       1.105       231.4      11.644   23.2875   0.8535  -4.0144  -0.00027  0.7758E-13  0.5189E-17  34.0000  -3.4264   271.2      -929.1       1.4462  0.2088    
  -16.000   2000.     -2.000   54.18       1.131       236.8      11.669   23.7993   0.8528  -3.6603  -0.00025  0.7690E-13  0.5310E-17  32.0000  -3.1216   277.7      -866.9       1.4506  0.1969    
  -15.000   2000.     -2.000   51.72       1.518       318.0      12.039   31.5053   0.8383  -2.4402  -0.00024  0.7342E-13  0.7129E-17  30.0000  -2.0456   379.3      -775.9       1.4613  0.1554    
  -14.000   2000.     -2.000   49.18       1.543       323.1      12.062   31.9914   0.8372  -2.1313  -0.00022  0.6981E-13  0.7244E-17  28.0000  -1.7844   385.9      -688.6       1.4788  0.9506E-01
  -13.000   2000.     -2.000   48.96       1.554       325.5      12.073   32.2182   0.8367  -1.9555  -0.00021  0.6949E-13  0.7297E-17  26.0000  -1.6362   389.0      -636.4       1.4756  0.8752E-01
  -12.000   2000.     -2.000   48.75       1.571       329.0      12.089   32.5560   0.8360  -1.7781  -0.00019  0.6920E-13  0.7377E-17  24.0000  -1.4865   393.6      -585.0       1.4693  0.8276E-01
  -11.000   2000.     -2.000   48.45       1.587       332.3      12.104   32.8718   0.8353  -1.6036  -0.00017  0.6877E-13  0.7451E-17  22.0000  -1.3394   397.9      -532.9       1.4617  0.7636E-01
  -10.000   2000.     -2.000   48.14       1.606       336.4      12.123   33.2548   0.8344  -1.4311  -0.00016  0.6833E-13  0.7542E-17  20.0000  -1.1941   403.1      -481.4       1.4512  0.7177E-01
   -9.000   2000.     -2.000   47.76       1.626       340.5      12.141   33.6492   0.8335  -1.2623  -0.00014  0.6779E-13  0.7635E-17  18.0000  -1.0521   408.6      -429.8       1.4384  0.6716E-01
   -8.000   2000.     -2.000   47.30       1.646       344.7      12.161   34.0477   0.8326  -1.0978  -0.00013  0.6714E-13  0.7729E-17  16.0000  -0.9140   414.0      -378.4       1.4229  0.6253E-01
   -7.000   2000.     -2.000   46.72       1.659       347.4      12.173   34.3075   0.8320  -0.9413  -0.00011  0.6632E-13  0.7790E-17  14.0000  -0.7831   417.6      -327.0       1.4042  0.5660E-01
   -6.000   2000.     -2.000   46.06       1.677       351.2      12.190   34.6621   0.8311  -0.7869  -0.00009  0.6537E-13  0.7874E-17  12.0000  -0.6540   422.5      -276.3       1.3815  0.5217E-01
   -5.000   2000.     -2.000   45.28       1.693       354.6      12.206   34.9837   0.8304  -0.6386  -0.00008  0.6427E-13  0.7950E-17  10.0000  -0.5302   427.0      -226.4       1.3551  0.4780E-01
   -4.000   2000.     -2.000   44.39       1.707       357.5      12.219   35.2589   0.8297  -0.4968  -0.00006  0.6301E-13  0.8015E-17   8.0000  -0.4122   430.8      -177.6       1.3249  0.4355E-01
   -3.000   2000.     -2.000   43.38       1.718       359.7      12.229   35.4731   0.8292  -0.3618  -0.00005  0.6157E-13  0.8065E-17   6.0000  -0.3000   433.8      -130.1       1.2905  0.3947E-01
   -2.000   2000.     -2.000   42.23       1.724       361.2      12.236   35.6108   0.8289  -0.2338  -0.00003  0.5994E-13  0.8098E-17   4.0001  -0.1938   435.7      -84.46       1.2518  0.3560E-01
   -1.000   2000.     -2.000   40.94       1.727       361.6      12.238   35.6563   0.8288  -0.1132  -0.00002  0.5811E-13  0.8109E-17   2.0001  -0.0938   436.4      -40.94       1.2086  0.3203E-01
    0.000   2000.     -2.000   39.51       1.723       361.0      12.235   35.5908   0.8289   0.0000   0.00000  0.5608E-13  0.8093E-17   0.0150   0.0000   435.4       0.000       1.1608  0.2881E-01
    1.000   2000.     -2.000   37.91       1.713       358.8      12.225   35.3872   0.8294   0.1057   0.00002  0.5382E-13  0.8045E-17   0.0001   0.0876   432.6       37.91       1.1081  0.2597E-01
    2.000   2000.     -2.000   36.15       1.695       355.0      12.207   35.0208   0.8303   0.2037   0.00003  0.5131E-13  0.7959E-17   0.0001   0.1691   427.5       72.30       1.0502  0.2362E-01
    3.000   2000.     -2.000   34.24       1.668       349.4      12.182   34.4885   0.8315   0.2940   0.00005  0.4860E-13  0.7833E-17   0.0000   0.2445   420.1       102.7       0.9879  0.2169E-01
    4.000   2000.     -2.000   32.15       1.631       341.5      12.146   33.7472   0.8333   0.3765   0.00006  0.4563E-13  0.7658E-17   0.0000   0.3137   409.9       128.6       0.9205  0.2022E-01
    5.000   2000.     -2.000   29.89       1.583       331.6      12.101   32.7996   0.8354   0.4507   0.00008  0.4243E-13  0.7434E-17   0.0000   0.3766   396.9       149.5       0.8487  0.1949E-01
    6.000   2000.     -2.000   27.50       1.526       319.6      12.046   31.6607   0.8380   0.5163   0.00009  0.3903E-13  0.7166E-17   0.0000   0.4326   381.4       165.0       0.7741  0.1927E-01
    7.000   2000.     -2.000   24.96       1.458       305.4      11.981   30.3137   0.8409   0.5722   0.00011  0.3544E-13  0.6848E-17   0.0000   0.4812   363.2       174.8       0.6966  0.1967E-01
    8.000   2000.     -2.000   22.29       1.379       288.9      11.906   28.7454   0.8441   0.6171   0.00013  0.3163E-13  0.6478E-17   0.0000   0.5209   342.2       178.3       0.6165  0.2085E-01
    9.000   2000.     -2.000   19.48       1.289       270.0      11.820   26.9454   0.8476   0.6495   0.00014  0.2765E-13  0.6053E-17   0.0000   0.5505   318.5       175.3       0.5345  0.2274E-01
   10.000   2000.     -2.000   16.52       1.185       248.2      11.721   24.8792   0.8512   0.6658   0.00016  0.2345E-13  0.5565E-17   0.0000   0.5667   291.6       165.2       0.4503  0.2550E-01
   11.000   2000.     -2.000   13.41       1.067       223.4      11.607   22.5222   0.8545   0.6603   0.00017  0.1903E-13  0.5009E-17   0.0000   0.5643   261.4       147.5       0.3641  0.2914E-01
   12.000   2000.     -2.000   10.14      0.9334       195.5      11.480   19.8711   0.8569   0.6228   0.00019  0.1440E-13  0.4383E-17   0.0000   0.5337   228.1       121.7       0.2764  0.3388E-01
   13.000   2000.     -2.000   6.745      0.7841       164.2      11.338   16.9017   0.8570   0.5339   0.00021  0.9573E-14  0.3682E-17   0.0000   0.4576   191.6       87.68       0.1880  0.3940E-01
   14.000   2000.     -2.000   3.177      0.6176       129.4      11.179   13.5886   0.8516   0.3438   0.00022  0.4509E-14  0.2900E-17   0.0000   0.2928   151.9       44.47       0.0983  0.4614E-01
   15.000   2000.     -2.000 -0.2728      0.5069       106.2      11.073   11.3855   0.8421  -0.0385   0.00024 -0.3871E-15  0.2380E-17   0.0000  -0.0325   126.1      -4.091       0.0200  0.6181E-01
   16.000   2000.     -2.000  -1.565      0.6549       137.2      11.214   14.3300   0.8535  -0.1826   0.00025 -0.2221E-14  0.3075E-17   0.0000  -0.1558   160.7      -25.04       0.0000  0.8518E-01
   17.000   2000.     -2.000  -1.933      0.7441       155.9      11.299   16.1058   0.8564  -0.2109   0.00027 -0.2744E-14  0.3494E-17   0.0000  -0.1806   182.0      -32.86       0.0000  0.9727E-01
   18.000   2000.     -2.000  -2.371      0.8459       177.2      11.397   18.1304   0.8574  -0.2409   0.00028 -0.3366E-14  0.3972E-17   0.0000  -0.2066   206.6      -42.68       0.0000  0.1109    
   19.000   2000.     -2.000  -2.883      0.9597       201.0      11.505   20.3940   0.8566  -0.2726   0.00030 -0.4092E-14  0.4506E-17   0.0000  -0.2335   234.6      -54.78       0.0000  0.1259    
   20.000   2000.     -2.000  -3.473       1.085       227.2      11.625   22.8868   0.8541  -0.3057   0.00032 -0.4929E-14  0.5095E-17   0.0000  -0.2611   266.1      -69.46       0.0000  0.1421    

  -20.000   2000.     -1.000   55.68       1.214       254.2      11.748   25.4518   0.8502  -4.3802  -0.00032  0.7903E-13  0.5700E-17  40.0000  -3.7242   299.0      -1114.       1.4293  0.2548    
  -19.000   2000.     -1.000   55.11       1.225       256.6      11.759   25.6785   0.8499  -4.0807  -0.00030  0.7823E-13  0.5754E-17  38.0000  -3.4680   302.0      -1047.       1.4341  0.2422    
  -18.000   2000.     -1.000   54.59       1.240       259.7      11.773   25.9747   0.8494  -3.7829  -0.00028  0.7748E-13  0.5824E-17  36.0000  -3.2130   305.8      -982.5       1.4387  0.2297    
  -17.000   2000.     -1.000   54.09       1.259       263.6      11.791   26.3429   0.8487  -3.4884  -0.00027  0.7678E-13  0.5911E-17  34.0000  -2.9606   310.6      -919.6       1.4433  0.2173    
  -16.000   2000.     -1.000   52.16       1.564       327.5      12.082   32.4123   0.8363  -2.5484  -0.00025  0.7404E-13  0.7343E-17  32.0000  -2.1312   391.6      -834.6       1.4540  0.1834    
  -15.000   2000.     -1.000   49.33       1.619       339.1      12.135   33.5189   0.8338  -2.1819  -0.00024  0.7002E-13  0.7604E-17  30.0000  -1.8192   406.8      -740.0       1.4774  0.1171    
  -14.000   2000.     -1.000   49.12       1.633       342.0      12.148   33.7924   0.8331  -2.0104  -0.00022  0.6971E-13  0.7669E-17  28.0000  -1.6750   410.5      -687.6       1.4818  0.1054    
  -13.000   2000.     -1.000   49.14       1.663       348.4      12.177   34.3937   0.8318  -1.8340  -0.00021  0.6976E-13  0.7811E-17  26.0000  -1.5254   418.8      -638.9       1.4831  0.1015    
  -12.000   2000.     -1.000   49.13       1.694       354.8      12.207   35.0090   0.8303  -1.6615  -0.00019  0.6974E-13  0.7956E-17  24.0000  -1.3796   427.3      -589.6       1.4852  0.9563E-01
  -11.000   2000.     -1.000   49.18       1.732       362.7      12.243   35.7544   0.8286  -1.4917  -0.00017  0.6981E-13  0.8132E-17  22.0000  -1.2359   437.7      -541.0       1.4864  0.9168E-01
  -10.000   2000.     -1.000   49.17       1.741       364.5      12.251   35.9305   0.8281  -1.3488  -0.00016  0.6979E-13  0.8173E-17  20.0000  -1.1170   440.2      -491.7       1.4852  0.8444E-01
   -9.000   2000.     -1.000   48.99       1.757       368.0      12.267   36.2624   0.8273  -1.1981  -0.00014  0.6954E-13  0.8252E-17  18.0000  -0.9912   444.8      -440.9       1.4786  0.7814E-01
   -8.000   2000.     -1.000   48.68       1.782       373.2      12.291   36.7544   0.8262  -1.0436  -0.00013  0.6910E-13  0.8368E-17  16.0000  -0.8622   451.7      -389.5       1.4691  0.7196E-01
   -7.000   2000.     -1.000   48.31       1.807       378.5      12.315   37.2595   0.8249  -0.8934  -0.00011  0.6857E-13  0.8487E-17  14.0000  -0.7370   458.8      -338.2       1.4558  0.6683E-01
   -6.000   2000.     -1.000   47.84       1.826       382.4      12.333   37.6319   0.8240  -0.7506  -0.00009  0.6791E-13  0.8575E-17  12.0000  -0.6185   464.1      -287.1       1.4390  0.6082E-01
   -5.000   2000.     -1.000   47.24       1.849       387.3      12.355   38.0919   0.8229  -0.6099  -0.00008  0.6705E-13  0.8683E-17  10.0000  -0.5019   470.6      -236.2       1.4178  0.5579E-01
   -4.000   2000.     -1.000   46.52       1.870       391.7      12.375   38.5082   0.8219  -0.4750  -0.00006  0.6602E-13  0.8782E-17   8.0000  -0.3904   476.5      -186.1       1.3925  0.5086E-01
   -3.000   2000.     -1.000   45.62       1.881       393.9      12.385   38.7220   0.8214  -0.3474  -0.00005  0.6475E-13  0.8832E-17   6.0000  -0.2854   479.6      -136.9       1.3617  0.4552E-01
   -2.000   2000.     -1.000   44.58       1.890       395.7      12.393   38.8960   0.8210  -0.2253  -0.00003  0.6328E-13  0.8873E-17   4.0001  -0.1850   482.1      -89.16       1.3259  0.4035E-01
   -1.000   2000.     -1.000   43.37       1.896       397.1      12.399   39.0218   0.8207  -0.1092  -0.00002  0.6156E-13  0.8903E-17   2.0001  -0.0896   483.8      -43.37       1.2847  0.3614E-01
    0.000   2000.     -1.000   42.00       1.896       397.1      12.400   39.0292   0.8206   0.0000   0.00000  0.5962E-13  0.8905E-17   0.0155   0.0000   484.0       0.000       1.2385  0.3229E-01
    1.000   2000.     -1.000   40.48       1.888       395.5      12.392   38.8717   0.8210   0.1023   0.00002  0.5745E-13  0.8868E-17   0.0001   0.0840   481.7       40.48       1.1872  0.2852E-01
    2.000   2000.     -1.000   38.76       1.872       392.1      12.377   38.5495   0.8218   0.1977   0.00003  0.5501E-13  0.8791E-17   0.0001   0.1625   477.1       77.51       1.1298  0.2562E-01
    3.000   2000.     -1.000   36.88       1.847       386.9      12.353   38.0563   0.8230   0.2859   0.00005  0.5234E-13  0.8675E-17   0.0000   0.2353   470.1       110.6       1.0677  0.2326E-01
    4.000   2000.     -1.000   34.83       1.813       379.6      12.320   37.3637   0.8247   0.3670   0.00006  0.4944E-13  0.8512E-17   0.0000   0.3027   460.3       139.3       1.0009  0.2134E-01
    5.000   2000.     -1.000   32.60       1.765       369.8      12.275   36.4263   0.8270   0.4409   0.00008  0.4628E-13  0.8290E-17   0.0000   0.3646   447.1       163.0       0.9288  0.2003E-01
    6.000   2000.     -1.000   30.24       1.708       357.7      12.220   35.2861   0.8297   0.5071   0.00009  0.4292E-13  0.8021E-17   0.0000   0.4207   431.2       181.4       0.8535  0.1931E-01
    7.000   2000.     -1.000   27.73       1.640       343.5      12.155   33.9291   0.8328   0.5652   0.00011  0.3936E-13  0.7701E-17   0.0000   0.4707   412.4       194.1       0.7755  0.1913E-01
    8.000   2000.     -1.000   25.09       1.560       326.8      12.079   32.3421   0.8364   0.6142   0.00013  0.3561E-13  0.7326E-17   0.0000   0.5137   390.7       200.7       0.6949  0.1961E-01
    9.000   2000.     -1.000   22.31       1.469       307.6      11.992   30.5261   0.8404   0.6528   0.00014  0.3167E-13  0.6898E-17   0.0000   0.5486   366.1       200.8       0.6125  0.2093E-01
   10.000   2000.     -1.000   19.40       1.364       285.7      11.892   28.4456   0.8447   0.6790   0.00016  0.2754E-13  0.6407E-17   0.0000   0.5736   338.3       194.0       0.5280  0.2300E-01
   11.000   2000.     -1.000   16.34       1.245       260.8      11.778   26.0762   0.8492   0.6891   0.00017  0.2319E-13  0.5848E-17   0.0000   0.5851   307.1       179.7       0.4415  0.2597E-01
   12.000   2000.     -1.000   13.12       1.110       232.6      11.649   23.3934   0.8534   0.6769   0.00019  0.1862E-13  0.5214E-17   0.0000   0.5777   272.5       157.4       0.3532  0.2983E-01
   13.000   2000.     -1.000   9.773      0.9610       201.3      11.507   20.4211   0.8566   0.6312   0.00021  0.1387E-13  0.4513E-17   0.0000   0.5407   235.0       127.0       0.2646  0.3481E-01
   14.000   2000.     -1.000   6.275      0.7935       166.2      11.347   17.0873   0.8571   0.5286   0.00022  0.8907E-14  0.3726E-17   0.0000   0.4531   193.9       87.85       0.1748  0.4055E-01
   15.000   2000.     -1.000   2.628      0.6110       128.0      11.172   13.4574   0.8512   0.3080   0.00024  0.3730E-14  0.2869E-17   0.0000   0.2621   150.3       39.41       0.0851  0.4799E-01
   16.000   2000.     -1.000 -0.4364      0.5405       113.2      11.105   12.0544   0.8457  -0.0617   0.00025 -0.6195E-15  0.2538E-17   0.0000  -0.0522   133.9      -6.983       0.0200  0.6618E-01
   17.000   2000.     -1.000  -1.744      0.6688       140.1      11.227   14.6078   0.8541  -0.2117   0.00027 -0.2476E-14  0.3141E-17   0.0000  -0.1808   164.0      -29.66       0.0000  0.8758E-01
   18.000   2000.     -1.000  -2.140      0.7592       159.0      11.314   16.4054   0.8567  -0.2423   0.00028 -0.3038E-14  0.3565E-17   0.0000  -0.2075   185.6      -38.52       0.0000  0.9979E-01
   19.000   2000.     -1.000  -2.607      0.8616       180.5      11.412   18.4439   0.8574  -0.2744   0.00030 -0.3700E-14  0.4046E-17   0.0000  -0.2353   210.5      -49.53       0.0000  0.1134    
   20.000   2000.     -1.000  -3.148      0.9757       204.4      11.521   20.7139   0.8564  -0.3081   0.00032 -0.4468E-14  0.4582E-17   0.0000  -0.2638   238.6      -62.95       0.0000  0.1284    

  -20.000   2000.      0.000   55.04       1.377       288.4      11.904   28.6982   0.8442  -3.8170  -0.00032  0.7813E-13  0.6466E-17  40.0000  -3.2224   341.6      -1101.       1.4259  0.2642    
  -19.000   2000.      0.000   54.50       1.385       290.0      11.911   28.8546   0.8439  -3.5699  -0.00030  0.7735E-13  0.6503E-17  38.0000  -3.0126   343.7      -1035.       1.4308  0.2514    
  -18.000   2000.      0.000   53.95       1.405       294.3      11.931   29.2602   0.8431  -3.2998  -0.00028  0.7658E-13  0.6599E-17  36.0000  -2.7820   349.1      -971.2       1.4357  0.2381    
  -17.000   2000.      0.000   52.29       1.629       341.1      12.144   33.7085   0.8333  -2.6058  -0.00027  0.7422E-13  0.7649E-17  34.0000  -2.1715   409.4      -888.9       1.4459  0.2069    
  -16.000   2000.      0.000   50.15       1.709       357.9      12.221   35.3020   0.8296  -2.2420  -0.00025  0.7119E-13  0.8025E-17  32.0000  -1.8600   431.4      -802.4       1.4621  0.1597    
  -15.000   2000.      0.000   49.01       1.681       352.0      12.194   34.7431   0.8309  -2.0885  -0.00024  0.6957E-13  0.7893E-17  30.0000  -1.7354   423.7      -735.2       1.4758  0.1236    
  -14.000   2000.      0.000   48.96       1.701       356.3      12.213   35.1483   0.8300  -1.9239  -0.00022  0.6950E-13  0.7989E-17  28.0000  -1.5968   429.3      -685.5       1.4784  0.1167    
  -13.000   2000.      0.000   49.00       1.729       362.2      12.240   35.7078   0.8287  -1.7586  -0.00021  0.6955E-13  0.8121E-17  26.0000  -1.4573   437.1      -637.0       1.4798  0.1124    
  -12.000   2000.      0.000   48.99       1.758       368.2      12.268   36.2804   0.8273  -1.5966  -0.00019  0.6954E-13  0.8256E-17  24.0000  -1.3209   445.1      -587.9       1.4820  0.1063    
  -11.000   2000.      0.000   49.04       1.793       375.6      12.301   36.9776   0.8256  -1.4365  -0.00017  0.6961E-13  0.8420E-17  22.0000  -1.1860   454.9      -539.5       1.4834  0.1020    
  -10.000   2000.      0.000   49.11       1.832       383.7      12.338   37.7510   0.8238  -1.2798  -0.00016  0.6970E-13  0.8603E-17  20.0000  -1.0543   465.8      -491.1       1.4848  0.9753E-01
   -9.000   2000.      0.000   49.18       1.875       392.7      12.380   38.6100   0.8217  -1.1269  -0.00014  0.6980E-13  0.8806E-17  18.0000  -0.9259   478.0      -442.6       1.4862  0.9286E-01
   -8.000   2000.      0.000   49.23       1.922       402.6      12.425   39.5490   0.8194  -0.9781  -0.00013  0.6987E-13  0.9027E-17  16.0000  -0.8014   491.4      -393.8       1.4880  0.8718E-01
   -7.000   2000.      0.000   49.31       1.965       411.6      12.465   40.3994   0.8173  -0.8386  -0.00011  0.6998E-13  0.9228E-17  14.0000  -0.6853   503.6      -345.1       1.4889  0.8130E-01
   -6.000   2000.      0.000   49.15       1.973       413.3      12.473   40.5643   0.8169  -0.7135  -0.00009  0.6976E-13  0.9267E-17  12.0000  -0.5828   506.0      -294.9       1.4816  0.7226E-01
   -5.000   2000.      0.000   48.78       1.998       418.4      12.497   41.0503   0.8157  -0.5829  -0.00008  0.6924E-13  0.9382E-17  10.0000  -0.4755   513.0      -243.9       1.4678  0.6541E-01
   -4.000   2000.      0.000   48.27       2.021       423.4      12.519   41.5194   0.8145  -0.4560  -0.00006  0.6851E-13  0.9492E-17   8.0000  -0.3714   519.8      -193.1       1.4489  0.5878E-01
   -3.000   2000.      0.000   47.58       2.047       428.7      12.544   42.0295   0.8132  -0.3329  -0.00005  0.6753E-13  0.9613E-17   6.0000  -0.2707   527.2      -142.7       1.4244  0.5323E-01
   -2.000   2000.      0.000   46.73       2.064       432.3      12.560   42.3671   0.8124  -0.2162  -0.00003  0.6633E-13  0.9692E-17   4.0001  -0.1756   532.1      -93.47       1.3944  0.4719E-01
   -1.000   2000.      0.000   45.70       2.074       434.3      12.569   42.5572   0.8119  -0.1052  -0.00002  0.6487E-13  0.9737E-17   2.0001  -0.0854   534.9      -45.70       1.3583  0.4168E-01
    0.000   2000.      0.000   44.44       2.077       434.9      12.572   42.6168   0.8117   0.0000   0.00000  0.6308E-13  0.9751E-17   0.0159   0.0000   535.8       0.000       1.3148  0.3655E-01
    1.000   2000.      0.000   42.99       2.074       434.5      12.570   42.5754   0.8119   0.0990   0.00002  0.6102E-13  0.9742E-17   0.0001   0.0803   535.2       42.99       1.2655  0.3246E-01
    2.000   2000.      0.000   41.35       2.061       431.6      12.557   42.3066   0.8125   0.1916   0.00003  0.5870E-13  0.9678E-17   0.0001   0.1557   531.2       82.71       1.2099  0.2851E-01
    3.000   2000.      0.000   39.52       2.039       427.0      12.536   41.8625   0.8136   0.2777   0.00005  0.5609E-13  0.9573E-17   0.0000   0.2259   524.8       118.6       1.1484  0.2555E-01
    4.000   2000.      0.000   37.52       2.006       420.1      12.504   41.2070   0.8153   0.3572   0.00006  0.5325E-13  0.9419E-17   0.0000   0.2912   515.3       150.1       1.0819  0.2307E-01
    5.000   2000.      0.000   35.33       1.960       410.6      12.461   40.3034   0.8175   0.4303   0.00008  0.5015E-13  0.9205E-17   0.0000   0.3518   502.2       176.7       1.0101  0.2109E-01
    6.000   2000.      0.000   32.99       1.904       398.7      12.407   39.1768   0.8203   0.4965   0.00009  0.4683E-13  0.8940E-17   0.0000   0.4072   486.1       197.9       0.9343  0.1990E-01
    7.000   2000.      0.000   30.52       1.836       384.5      12.342   37.8290   0.8236   0.5555   0.00011  0.4332E-13  0.8621E-17   0.0000   0.4575   466.9       213.6       0.8558  0.1921E-01
    8.000   2000.      0.000   27.91       1.756       367.8      12.266   36.2393   0.8274   0.6070   0.00013  0.3961E-13  0.8246E-17   0.0000   0.5023   444.5       223.3       0.7747  0.1908E-01
    9.000   2000.      0.000   25.17       1.664       348.5      12.178   34.4114   0.8317   0.6499   0.00014  0.3573E-13  0.7815E-17   0.0000   0.5406   419.1       226.5       0.6917  0.1974E-01
   10.000   2000.      0.000   22.30       1.559       326.6      12.078   32.3240   0.8365   0.6829   0.00016  0.3166E-13  0.7322E-17   0.0000   0.5713   390.4       223.0       0.6069  0.2113E-01
   11.000   2000.      0.000   19.29       1.440       301.6      11.964   29.9498   0.8416   0.7036   0.00017  0.2738E-13  0.6762E-17   0.0000   0.5922   358.3       212.2       0.5202  0.2339E-01
   12.000   2000.      0.000   16.13       1.305       273.3      11.835   27.2650   0.8470   0.7080   0.00019  0.2289E-13  0.6128E-17   0.0000   0.5997   322.7       193.5       0.4318  0.2655E-01
   13.000   2000.      0.000   12.83       1.155       241.8      11.692   24.2757   0.8521   0.6895   0.00021  0.1821E-13  0.5423E-17   0.0000   0.5875   283.8       166.7       0.3426  0.3080E-01
   14.000   2000.      0.000   9.395      0.9874       206.8      11.532   20.9454   0.8562   0.6360   0.00022  0.1333E-13  0.4637E-17   0.0000   0.5445   241.5       131.5       0.2527  0.3581E-01
   15.000   2000.      0.000   5.803      0.8019       167.9      11.355   17.2551   0.8572   0.5182   0.00024  0.8236E-14  0.3766E-17   0.0000   0.4442   195.9       87.04       0.1620  0.4203E-01
   16.000   2000.      0.000   2.189      0.6263       131.2      11.187   13.7622   0.8521   0.2670   0.00025  0.3107E-14  0.2941E-17   0.0000   0.2275   154.0       35.03       0.0771  0.5248E-01
   17.000   2000.      0.000 -0.5393      0.5714       119.7      11.134   12.6697   0.8484  -0.0766   0.00027 -0.7655E-15  0.2683E-17   0.0000  -0.0650   141.1      -9.169       0.0212  0.6950E-01
   18.000   2000.      0.000  -1.912      0.6748       141.3      11.233   14.7270   0.8544  -0.2435   0.00028 -0.2714E-14  0.3169E-17   0.0000  -0.2080   165.4      -34.42       0.0003  0.8921E-01
   19.000   2000.      0.000  -2.354      0.7734       162.0      11.327   16.6880   0.8569  -0.2761   0.00030 -0.3341E-14  0.3632E-17   0.0000  -0.2366   189.0      -44.72       0.0000  0.1021    
   20.000   2000.      0.000  -2.847      0.8762       183.5      11.426   18.7342   0.8574  -0.3103   0.00032 -0.4041E-14  0.4115E-17   0.0000  -0.2660   214.0      -56.95       0.0000  0.1157    

  -20.000   2000.      1.000   54.39       1.539       322.3      12.058   31.9178   0.8374  -3.3750  -0.00032  0.7720E-13  0.7226E-17  40.0000  -2.8262   384.9      -1088.       1.4224  0.2738    
  -19.000   2000.      1.000   53.71       1.576       330.1      12.094   32.6587   0.8357  -3.0918  -0.00030  0.7624E-13  0.7401E-17  38.0000  -2.5839   395.0      -1021.       1.4281  0.2584    
  -18.000   2000.      1.000   52.17       1.733       362.9      12.243   35.7728   0.8285  -2.5880  -0.00028  0.7405E-13  0.8136E-17  36.0000  -2.1442   438.0      -939.1       1.4384  0.2278    
  -17.000   2000.      1.000   50.49       1.788       374.4      12.296   36.8720   0.8259  -2.2923  -0.00027  0.7167E-13  0.8396E-17  34.0000  -1.8932   453.4      -858.3       1.4517  0.1897    
  -16.000   2000.      1.000   48.82       1.738       364.0      12.249   35.8813   0.8283  -2.1460  -0.00025  0.6930E-13  0.8162E-17  32.0000  -1.7774   439.5      -781.2       1.4703  0.1406    
  -15.000   2000.      1.000   48.77       1.754       367.3      12.264   36.1916   0.8275  -1.9916  -0.00024  0.6922E-13  0.8235E-17  30.0000  -1.6481   443.8      -731.5       1.4730  0.1334    
  -14.000   2000.      1.000   48.79       1.777       372.2      12.286   36.6583   0.8264  -1.8354  -0.00022  0.6926E-13  0.8345E-17  28.0000  -1.5168   450.4      -683.1       1.4745  0.1290    
  -13.000   2000.      1.000   48.83       1.803       377.6      12.311   37.1761   0.8251  -1.6809  -0.00021  0.6931E-13  0.8467E-17  26.0000  -1.3870   457.7      -634.8       1.4761  0.1245    
  -12.000   2000.      1.000   48.83       1.830       383.2      12.336   37.7063   0.8239  -1.5291  -0.00019  0.6931E-13  0.8592E-17  24.0000  -1.2598   465.2      -586.0       1.4783  0.1182    
  -11.000   2000.      1.000   48.89       1.862       390.1      12.367   38.3554   0.8223  -1.3787  -0.00017  0.6939E-13  0.8746E-17  22.0000  -1.1337   474.4      -537.8       1.4799  0.1135    
  -10.000   2000.      1.000   48.96       1.899       397.7      12.402   39.0771   0.8205  -1.2311  -0.00016  0.6949E-13  0.8916E-17  20.0000  -1.0102   484.6      -489.6       1.4814  0.1087    
   -9.000   2000.      1.000   49.03       1.939       406.1      12.441   39.8807   0.8185  -1.0866  -0.00014  0.6959E-13  0.9106E-17  18.0000  -0.8894   496.1      -441.3       1.4831  0.1036    
   -8.000   2000.      1.000   49.09       1.983       415.4      12.483   40.7604   0.8164  -0.9454  -0.00013  0.6968E-13  0.9313E-17  16.0000  -0.7718   508.8      -392.7       1.4851  0.9745E-01
   -7.000   2000.      1.000   49.19       2.034       425.9      12.531   41.7645   0.8139  -0.8083  -0.00011  0.6982E-13  0.9550E-17  14.0000  -0.6579   523.4      -344.3       1.4867  0.9213E-01
   -6.000   2000.      1.000   49.30       2.090       437.7      12.585   42.8852   0.8111  -0.6757  -0.00009  0.6997E-13  0.9815E-17  12.0000  -0.5480   539.7      -295.8       1.4884  0.8665E-01
   -5.000   2000.      1.000   49.42       2.153       450.9      12.645   44.1366   0.8079  -0.5480  -0.00008  0.7014E-13  0.1011E-16  10.0000  -0.4427   558.1      -247.1       1.4900  0.8103E-01
   -4.000   2000.      1.000   49.50       2.182       456.9      12.672   44.7053   0.8065  -0.4333  -0.00006  0.7026E-13  0.1024E-16   8.0000  -0.3495   566.5      -198.0       1.4894  0.7111E-01
   -3.000   2000.      1.000   49.15       2.205       461.8      12.695   45.1750   0.8053  -0.3193  -0.00005  0.6976E-13  0.1036E-16   6.0000  -0.2571   573.5      -147.5       1.4752  0.6262E-01
   -2.000   2000.      1.000   48.55       2.232       467.5      12.720   45.7088   0.8040  -0.2077  -0.00003  0.6892E-13  0.1048E-16   4.0001  -0.1670   581.4      -97.11       1.4529  0.5549E-01
   -1.000   2000.      1.000   47.74       2.253       471.8      12.740   46.1228   0.8029  -0.1012  -0.00002  0.6776E-13  0.1058E-16   2.0001  -0.0812   587.6      -47.74       1.4232  0.4884E-01
    0.000   2000.      1.000   46.70       2.266       474.7      12.753   46.3937   0.8023   0.0000   0.00000  0.6628E-13  0.1064E-16   0.0163   0.0000   591.7       0.000       1.3863  0.4277E-01
    1.000   2000.      1.000   45.45       2.266       474.7      12.753   46.3935   0.8023   0.0957   0.00002  0.6451E-13  0.1064E-16   0.0001   0.0768   591.7       45.45       1.3423  0.3685E-01
    2.000   2000.      1.000   43.91       2.259       473.1      12.746   46.2442   0.8026   0.1856   0.00003  0.6233E-13  0.1061E-16   0.0001   0.1490   589.4       87.83       1.2895  0.3213E-01
    3.000   2000.      1.000   42.16       2.240       469.1      12.728   45.8665   0.8036   0.2696   0.00005  0.5984E-13  0.1052E-16   0.0000   0.2167   583.8       126.5       1.2295  0.2822E-01
    4.000   2000.      1.000   40.21       2.210       462.8      12.699   45.2707   0.8051   0.3475   0.00006  0.5707E-13  0.1038E-16   0.0000   0.2797   574.9       160.8       1.1637  0.2528E-01
    5.000   2000.      1.000   38.07       2.168       454.0      12.659   44.4310   0.8072   0.4193   0.00008  0.5404E-13  0.1018E-16   0.0000   0.3385   562.5       190.4       1.0925  0.2282E-01
    6.000   2000.      1.000   35.76       2.112       442.3      12.606   43.3203   0.8100   0.4851   0.00009  0.5076E-13  0.9917E-17   0.0000   0.3929   546.1       214.6       1.0162  0.2101E-01
    7.000   2000.      1.000   33.32       2.045       428.4      12.542   41.9938   0.8133   0.5445   0.00011  0.4729E-13  0.9604E-17   0.0000   0.4428   526.7       233.2       0.9373  0.1982E-01
    8.000   2000.      1.000   30.75       1.966       411.8      12.467   40.4239   0.8172   0.5972   0.00013  0.4364E-13  0.9234E-17   0.0000   0.4881   504.0       246.0       0.8558  0.1917E-01
    9.000   2000.      1.000   28.04       1.874       392.6      12.379   38.5962   0.8217   0.6428   0.00014  0.3980E-13  0.8803E-17   0.0000   0.5282   477.8       252.4       0.7722  0.1920E-01
   10.000   2000.      1.000   25.22       1.770       370.6      12.279   36.5112   0.8267   0.6805   0.00016  0.3580E-13  0.8310E-17   0.0000   0.5626   448.3       252.2       0.6871  0.1990E-01
   11.000   2000.      1.000   22.26       1.651       345.7      12.165   34.1401   0.8323   0.7083   0.00017  0.3160E-13  0.7751E-17   0.0000   0.5896   415.3       244.9       0.6002  0.2145E-01
   12.000   2000.      1.000   19.15       1.516       317.5      12.036   31.4610   0.8384   0.7240   0.00019  0.2719E-13  0.7118E-17   0.0000   0.6070   378.7       229.8       0.5116  0.2388E-01
   13.000   2000.      1.000   15.90       1.365       285.9      11.892   28.4621   0.8447   0.7230   0.00021  0.2257E-13  0.6411E-17   0.0000   0.6107   338.5       206.7       0.4217  0.2740E-01
   14.000   2000.      1.000   12.53       1.198       251.0      11.733   25.1436   0.8508   0.6992   0.00022  0.1779E-13  0.5627E-17   0.0000   0.5948   295.0       175.5       0.3317  0.3166E-01
   15.000   2000.      1.000   9.020       1.013       212.1      11.556   21.4533   0.8557   0.6378   0.00024  0.1280E-13  0.4756E-17   0.0000   0.5457   247.9       135.3       0.2409  0.3685E-01
   16.000   2000.      1.000   5.369      0.8101       169.7      11.362   17.4188   0.8573   0.5063   0.00025  0.7621E-14  0.3804E-17   0.0000   0.4341   197.9       85.91       0.1504  0.4325E-01
   17.000   2000.      1.000   1.934      0.6510       136.4      11.210   14.2537   0.8533   0.2411   0.00027  0.2745E-14  0.3057E-17   0.0000   0.2057   159.8       32.87       0.0734  0.5586E-01
   18.000   2000.      1.000 -0.6023      0.5948       124.6      11.157   13.1348   0.8501  -0.0870   0.00028 -0.8549E-15  0.2793E-17   0.0000  -0.0740   146.5      -10.84       0.0230  0.7157E-01
   19.000   2000.      1.000  -2.045      0.6762       141.6      11.235   14.7549   0.8544  -0.2744   0.00030 -0.2903E-14  0.3176E-17   0.0000  -0.2344   165.8      -38.86       0.0012  0.9015E-01
   20.000   2000.      1.000  -2.572      0.7866       164.7      11.340   16.9503   0.8571  -0.3123   0.00032 -0.3651E-14  0.3694E-17   0.0000  -0.2676   192.2      -51.44       0.0000  0.1042    

  -20.000   2000.      2.000   53.43       1.750       366.6      12.260   36.1284   0.8277  -2.9145  -0.00032  0.7583E-13  0.8220E-17  40.0000  -2.4123   443.0      -1069.       1.4203  0.2788    
  -19.000   2000.      2.000   52.25       1.832       383.7      12.338   37.7468   0.8238  -2.5877  -0.00030  0.7417E-13  0.8602E-17  38.0000  -2.1317   465.7      -992.8       1.4291  0.2537    
  -18.000   2000.      2.000   50.82       1.878       393.4      12.383   38.6751   0.8215  -2.3251  -0.00028  0.7213E-13  0.8821E-17  36.0000  -1.9101   478.9      -914.7       1.4407  0.2209    
  -17.000   2000.      2.000   49.27       1.850       387.5      12.356   38.1124   0.8229  -2.1617  -0.00027  0.6994E-13  0.8688E-17  34.0000  -1.7788   470.9      -837.6       1.4560  0.1794    
  -16.000   2000.      2.000   48.55       1.820       381.1      12.327   37.5081   0.8243  -2.0380  -0.00025  0.6891E-13  0.8546E-17  32.0000  -1.6801   462.4      -776.8       1.4670  0.1516    
  -15.000   2000.      2.000   48.57       1.839       385.2      12.345   37.8933   0.8234  -1.8916  -0.00024  0.6895E-13  0.8637E-17  30.0000  -1.5576   467.8      -728.6       1.4686  0.1472    
  -14.000   2000.      2.000   48.61       1.861       389.7      12.366   38.3213   0.8224  -1.7462  -0.00022  0.6899E-13  0.8738E-17  28.0000  -1.4360   473.9      -680.5       1.4702  0.1425    
  -13.000   2000.      2.000   48.60       1.882       394.2      12.386   38.7457   0.8213  -1.6029  -0.00021  0.6899E-13  0.8838E-17  26.0000  -1.3166   479.9      -631.8       1.4726  0.1360    
  -12.000   2000.      2.000   48.66       1.909       399.9      12.412   39.2859   0.8200  -1.4602  -0.00019  0.6906E-13  0.8965E-17  24.0000  -1.1974   487.6      -583.9       1.4742  0.1312    
  -11.000   2000.      2.000   48.72       1.939       406.2      12.441   39.8869   0.8185  -1.3193  -0.00017  0.6915E-13  0.9107E-17  22.0000  -1.0799   496.2      -535.9       1.4759  0.1262    
  -10.000   2000.      2.000   48.79       1.973       413.2      12.473   40.5570   0.8169  -1.1806  -0.00016  0.6925E-13  0.9265E-17  20.0000  -0.9644   505.9      -487.9       1.4776  0.1209    
   -9.000   2000.      2.000   48.84       2.010       420.9      12.508   41.2847   0.8151  -1.0443  -0.00014  0.6932E-13  0.9437E-17  18.0000  -0.8511   516.4      -439.5       1.4798  0.1145    
   -8.000   2000.      2.000   48.93       2.052       429.7      12.548   42.1257   0.8130  -0.9109  -0.00013  0.6945E-13  0.9636E-17  16.0000  -0.7405   528.6      -391.4       1.4816  0.1089    
   -7.000   2000.      2.000   49.03       2.099       439.6      12.593   43.0660   0.8106  -0.7807  -0.00011  0.6960E-13  0.9857E-17  14.0000  -0.6329   542.4      -343.2       1.4835  0.1031    
   -6.000   2000.      2.000   49.15       2.152       450.7      12.644   44.1183   0.8080  -0.6543  -0.00009  0.6976E-13  0.1011E-16  12.0000  -0.5286   557.8      -294.9       1.4853  0.9703E-01
   -5.000   2000.      2.000   49.28       2.211       463.1      12.701   45.2967   0.8050  -0.5320  -0.00008  0.6994E-13  0.1038E-16  10.0000  -0.4283   575.3      -246.4       1.4873  0.9082E-01
   -4.000   2000.      2.000   49.42       2.278       477.0      12.764   46.6166   0.8017  -0.4144  -0.00006  0.7014E-13  0.1070E-16   8.0000  -0.3322   595.0      -197.7       1.4892  0.8448E-01
   -3.000   2000.      2.000   49.57       2.352       492.6      12.835   48.0945   0.7980  -0.3019  -0.00005  0.7037E-13  0.1104E-16   6.0000  -0.2409   617.3      -148.7       1.4911  0.7809E-01
   -2.000   2000.      2.000   49.75       2.416       505.9      12.896   49.3609   0.7948  -0.1967  -0.00003  0.7062E-13  0.1134E-16   4.0001  -0.1563   636.5      -99.51       1.4928  0.6960E-01
   -1.000   2000.      2.000   49.43       2.424       507.6      12.903   49.5246   0.7944  -0.0974  -0.00002  0.7016E-13  0.1138E-16   2.0001  -0.0773   639.0      -49.43       1.4777  0.5761E-01
    0.000   2000.      2.000   48.68       2.451       513.4      12.930   50.0690   0.7930   0.0000   0.00000  0.6909E-13  0.1151E-16   0.0166   0.0000   647.4       0.000       1.4496  0.5036E-01
    1.000   2000.      2.000   47.64       2.463       515.8      12.941   50.3015   0.7924   0.0924   0.00002  0.6762E-13  0.1157E-16   0.0001   0.0732   650.9       47.64       1.4118  0.4317E-01
    2.000   2000.      2.000   46.33       2.467       516.7      12.945   50.3859   0.7922   0.1793   0.00003  0.6576E-13  0.1159E-16   0.0001   0.1421   652.2       92.66       1.3654  0.3755E-01
    3.000   2000.      2.000   44.76       2.452       513.6      12.931   50.0927   0.7929   0.2614   0.00005  0.6353E-13  0.1152E-16   0.0000   0.2073   647.7       134.3       1.3103  0.3220E-01
    4.000   2000.      2.000   42.88       2.425       508.0      12.905   49.5577   0.7943   0.3377   0.00006  0.6086E-13  0.1139E-16   0.0000   0.2682   639.5       171.5       1.2458  0.2824E-01
    5.000   2000.      2.000   40.80       2.386       499.8      12.868   48.7789   0.7962   0.4082   0.00008  0.5792E-13  0.1121E-16   0.0000   0.3250   627.7       204.0       1.1753  0.2518E-01
    6.000   2000.      2.000   38.54       2.333       488.6      12.817   47.7137   0.7989   0.4733   0.00009  0.5471E-13  0.1095E-16   0.0000   0.3782   611.5       231.3       1.0994  0.2266E-01
    7.000   2000.      2.000   36.13       2.267       474.9      12.754   46.4144   0.8022   0.5326   0.00011  0.5129E-13  0.1065E-16   0.0000   0.4273   592.0       252.9       1.0199  0.2096E-01
    8.000   2000.      2.000   33.60       2.190       458.7      12.680   44.8744   0.8061   0.5860   0.00013  0.4769E-13  0.1028E-16   0.0000   0.4723   569.0       268.8       0.9381  0.1980E-01
    9.000   2000.      2.000   30.93       2.099       439.7      12.594   43.0698   0.8106   0.6331   0.00014  0.4390E-13  0.9858E-17   0.0000   0.5132   542.4       278.4       0.8539  0.1920E-01
   10.000   2000.      2.000   28.15       1.995       417.9      12.494   41.0017   0.8158   0.6737   0.00016  0.3996E-13  0.9370E-17   0.0000   0.5496   512.3       281.5       0.7685  0.1933E-01
   11.000   2000.      2.000   25.24       1.877       393.1      12.381   38.6433   0.8216   0.7064   0.00017  0.3583E-13  0.8814E-17   0.0000   0.5804   478.4       277.7       0.6813  0.2016E-01
   12.000   2000.      2.000   22.20       1.743       365.0      12.253   35.9785   0.8280   0.7297   0.00019  0.3150E-13  0.8185E-17   0.0000   0.6042   440.9       266.4       0.5925  0.2186E-01
   13.000   2000.      2.000   19.01       1.592       333.5      12.110   32.9854   0.8350   0.7408   0.00021  0.2698E-13  0.7478E-17   0.0000   0.6186   399.4       247.1       0.5024  0.2446E-01
   14.000   2000.      2.000   15.69       1.426       298.7      11.951   29.6783   0.8422   0.7353   0.00022  0.2227E-13  0.6698E-17   0.0000   0.6193   354.7       219.7       0.4119  0.2815E-01
   15.000   2000.      2.000   12.25       1.242       260.1      11.775   26.0125   0.8493   0.7062   0.00024  0.1738E-13  0.5833E-17   0.0000   0.5997   306.3       183.7       0.3210  0.3257E-01
   16.000   2000.      2.000   8.658       1.038       217.4      11.580   21.9567   0.8552   0.6371   0.00025  0.1229E-13  0.4875E-17   0.0000   0.5448   254.3       138.5       0.2295  0.3790E-01
   17.000   2000.      2.000   4.971      0.8313       174.1      11.383   17.8410   0.8574   0.4853   0.00027  0.7056E-14  0.3904E-17   0.0000   0.4161   203.1       84.51       0.1415  0.4656E-01
   18.000   2000.      2.000   1.764      0.6871       143.9      11.245   14.9710   0.8548   0.2207   0.00028  0.2504E-14  0.3227E-17   0.0000   0.1887   168.3       31.76       0.0722  0.5948E-01
   19.000   2000.      2.000 -0.6645      0.6326       132.5      11.193   13.8872   0.8524  -0.0953   0.00030 -0.9432E-15  0.2971E-17   0.0000  -0.0812   155.4      -12.63       0.0254  0.7469E-01
   20.000   2000.      2.000  -2.154      0.6787       142.2      11.237   14.8046   0.8545  -0.3030   0.00032 -0.3057E-14  0.3187E-17   0.0000  -0.2590   166.4      -43.08       0.0027  0.9084E-01

  -20.000   2000.      3.000   52.09       1.962       411.0      12.463   40.3420   0.8174  -2.5351  -0.00032  0.7394E-13  0.9215E-17  40.0000  -2.0722   502.8      -1042.       1.4206  0.2767    
  -19.000   2000.      3.000   50.88       1.985       415.7      12.484   40.7902   0.8163  -2.3258  -0.00030  0.7223E-13  0.9320E-17  38.0000  -1.8985   509.2      -966.8       1.4309  0.2481    
  -18.000   2000.      3.000   49.51       1.961       410.7      12.462   40.3172   0.8175  -2.1700  -0.00028  0.7028E-13  0.9209E-17  36.0000  -1.7739   502.4      -891.3       1.4442  0.2119    
  -17.000   2000.      3.000   48.39       1.905       398.9      12.408   39.1984   0.8202  -2.0622  -0.00027  0.6869E-13  0.8945E-17  34.0000  -1.6914   486.4      -822.7       1.4591  0.1741    
  -16.000   2000.      3.000   48.34       1.915       401.0      12.417   39.3973   0.8197  -1.9286  -0.00025  0.6861E-13  0.8992E-17  32.0000  -1.5809   489.2      -773.4       1.4620  0.1668    
  -15.000   2000.      3.000   48.37       1.932       404.7      12.434   39.7467   0.8189  -1.7927  -0.00024  0.6865E-13  0.9074E-17  30.0000  -1.4680   494.2      -725.5       1.4637  0.1621    
  -14.000   2000.      3.000   48.40       1.952       408.8      12.453   40.1362   0.8179  -1.6576  -0.00022  0.6870E-13  0.9166E-17  28.0000  -1.3558   499.8      -677.6       1.4654  0.1572    
  -13.000   2000.      3.000   48.40       1.971       412.9      12.471   40.5224   0.8170  -1.5241  -0.00021  0.6870E-13  0.9257E-17  26.0000  -1.2451   505.4      -629.3       1.4679  0.1505    
  -12.000   2000.      3.000   48.46       1.996       418.1      12.495   41.0180   0.8157  -1.3909  -0.00019  0.6878E-13  0.9374E-17  24.0000  -1.1346   512.5      -581.5       1.4696  0.1454    
  -11.000   2000.      3.000   48.52       2.024       423.9      12.522   41.5712   0.8144  -1.2592  -0.00017  0.6888E-13  0.9505E-17  22.0000  -1.0254   520.5      -533.8       1.4714  0.1400    
  -10.000   2000.      3.000   48.60       2.055       430.4      12.551   42.1898   0.8128  -1.1291  -0.00016  0.6898E-13  0.9651E-17  20.0000  -0.9177   529.5      -486.0       1.4733  0.1344    
   -9.000   2000.      3.000   48.65       2.089       437.5      12.584   42.8626   0.8111  -1.0009  -0.00014  0.6906E-13  0.9809E-17  18.0000  -0.8118   539.4      -437.9       1.4757  0.1275    
   -8.000   2000.      3.000   48.75       2.128       445.7      12.621   43.6441   0.8092  -0.8750  -0.00013  0.6920E-13  0.9994E-17  16.0000  -0.7080   550.8      -390.0       1.4777  0.1215    
   -7.000   2000.      3.000   48.86       2.172       455.0      12.663   44.5206   0.8070  -0.7518  -0.00011  0.6935E-13  0.1020E-16  14.0000  -0.6067   563.8      -342.0       1.4797  0.1152    
   -6.000   2000.      3.000   48.98       2.222       465.3      12.711   45.5045   0.8045  -0.6316  -0.00009  0.6952E-13  0.1043E-16  12.0000  -0.5081   578.4      -293.9       1.4818  0.1086    
   -5.000   2000.      3.000   49.12       2.277       476.9      12.764   46.6099   0.8017  -0.5149  -0.00008  0.6971E-13  0.1069E-16  10.0000  -0.4128   594.9      -245.6       1.4840  0.1018    
   -4.000   2000.      3.000   49.26       2.340       490.0      12.823   47.8517   0.7986  -0.4021  -0.00006  0.6992E-13  0.1099E-16   8.0000  -0.3211   613.6      -197.1       1.4862  0.9481E-01
   -3.000   2000.      3.000   49.43       2.410       504.7      12.890   49.2466   0.7951  -0.2938  -0.00005  0.7016E-13  0.1132E-16   6.0000  -0.2336   634.8      -148.3       1.4883  0.8772E-01
   -2.000   2000.      3.000   49.61       2.488       521.2      12.965   50.8121   0.7911  -0.1904  -0.00003  0.7041E-13  0.1169E-16   4.0001  -0.1506   658.8      -99.22       1.4905  0.8062E-01
   -1.000   2000.      3.000   49.80       2.577       539.6      13.050   52.5665   0.7867  -0.0923  -0.00002  0.7069E-13  0.1210E-16   2.0001  -0.0726   686.0      -49.80       1.4925  0.7361E-01
    0.000   2000.      3.000   50.01       2.656       556.3      13.126   54.1500   0.7827   0.0000   0.00000  0.7099E-13  0.1247E-16   0.0169   0.0000   710.7       0.000       1.4939  0.6472E-01
    1.000   2000.      3.000   49.56       2.658       556.7      13.127   54.1907   0.7826   0.0890   0.00002  0.7034E-13  0.1248E-16   0.0001   0.0697   711.4       49.56       1.4732  0.5177E-01
    2.000   2000.      3.000   48.54       2.669       558.9      13.138   54.3999   0.7821   0.1737   0.00003  0.6890E-13  0.1253E-16   0.0001   0.1358   714.7       97.08       1.4353  0.4344E-01
    3.000   2000.      3.000   47.17       2.668       558.9      13.137   54.3945   0.7821   0.2532   0.00005  0.6695E-13  0.1253E-16   0.0000   0.1980   714.6       141.5       1.3858  0.3713E-01
    4.000   2000.      3.000   45.48       2.654       555.8      13.123   54.0997   0.7828   0.3273   0.00006  0.6456E-13  0.1246E-16   0.0000   0.2563   710.0       181.9       1.3266  0.3240E-01
    5.000   2000.      3.000   43.53       2.616       547.8      13.087   53.3404   0.7848   0.3973   0.00008  0.6179E-13  0.1228E-16   0.0000   0.3118   698.0       217.7       1.2587  0.2795E-01
    6.000   2000.      3.000   41.33       2.566       537.4      13.039   52.3538   0.7872   0.4615   0.00009  0.5867E-13  0.1205E-16   0.0000   0.3633   682.7       248.0       1.1836  0.2487E-01
    7.000   2000.      3.000   38.96       2.502       524.1      12.979   51.0877   0.7904   0.5203   0.00011  0.5529E-13  0.1175E-16   0.0000   0.4113   663.0       272.7       1.1037  0.2266E-01
    8.000   2000.      3.000   36.46       2.427       508.3      12.906   49.5838   0.7942   0.5738   0.00013  0.5175E-13  0.1140E-16   0.0000   0.4558   639.9       291.7       1.0215  0.2096E-01
    9.000   2000.      3.000   33.83       2.338       489.7      12.822   47.8184   0.7987   0.6219   0.00014  0.4802E-13  0.1098E-16   0.0000   0.4967   613.1       304.5       0.9370  0.1983E-01
   10.000   2000.      3.000   31.09       2.236       468.2      12.724   45.7835   0.8038   0.6641   0.00016  0.4414E-13  0.1050E-16   0.0000   0.5338   582.5       310.9       0.8510  0.1940E-01
   11.000   2000.      3.000   28.24       2.119       443.7      12.612   43.4528   0.8097   0.7000   0.00017  0.4008E-13  0.9949E-17   0.0000   0.5668   548.0       310.6       0.7635  0.1954E-01
   12.000   2000.      3.000   25.25       1.986       415.9      12.485   40.8122   0.8162   0.7284   0.00019  0.3584E-13  0.9326E-17   0.0000   0.5946   509.6       303.0       0.6745  0.2052E-01
   13.000   2000.      3.000   22.12       1.837       384.7      12.343   37.8455   0.8235   0.7476   0.00021  0.3140E-13  0.8625E-17   0.0000   0.6156   467.1       287.6       0.5842  0.2236E-01
   14.000   2000.      3.000   18.86       1.671       350.0      12.185   34.5461   0.8314   0.7543   0.00022  0.2676E-13  0.7847E-17   0.0000   0.6271   420.9       264.0       0.4931  0.2530E-01
   15.000   2000.      3.000   15.48       1.488       311.7      12.010   30.9127   0.8396   0.7451   0.00024  0.2198E-13  0.6989E-17   0.0000   0.6256   371.3       232.3       0.4021  0.2895E-01
   16.000   2000.      3.000   11.97       1.286       269.4      11.817   26.8948   0.8477   0.7110   0.00025  0.1699E-13  0.6041E-17   0.0000   0.6027   317.8       191.5       0.3106  0.3350E-01
   17.000   2000.      3.000   8.325       1.066       223.3      11.607   22.5141   0.8545   0.6337   0.00027  0.1182E-13  0.5007E-17   0.0000   0.5416   261.3       141.5       0.2194  0.3925E-01
   18.000   2000.      3.000   4.723      0.8633       180.8      11.413   18.4767   0.8574   0.4701   0.00028  0.6703E-14  0.4054E-17   0.0000   0.4031   210.9       85.01       0.1365  0.4937E-01
   19.000   2000.      3.000   1.667      0.7238       151.6      11.280   15.7018   0.8559   0.2090   0.00030  0.2367E-14  0.3399E-17   0.0000   0.1789   177.1       31.68       0.0724  0.6217E-01
   20.000   2000.      3.000 -0.6867      0.6617       138.6      11.221   14.4656   0.8538  -0.0991   0.00032 -0.9748E-15  0.3107E-17   0.0000  -0.0846   162.3      -13.73       0.0282  0.7646E-01

  -20.000   2000.      4.000   50.70       2.106       441.1      12.600   43.2023   0.8103  -2.2987  -0.00032  0.7196E-13  0.9890E-17  40.0000  -1.8626   544.4      -1014.       1.4223  0.2713    
  -19.000   2000.      4.000   49.54       2.076       434.8      12.571   42.6044   0.8118  -2.1647  -0.00030  0.7031E-13  0.9748E-17  38.0000  -1.7573   535.6      -941.2       1.4340  0.2401    
  -18.000   2000.      4.000   48.58       2.029       425.0      12.527   41.6752   0.8141  -2.0573  -0.00028  0.6895E-13  0.9529E-17  36.0000  -1.6749   522.1      -874.4       1.4459  0.2094    
  -17.000   2000.      4.000   48.08       2.003       419.5      12.502   41.1560   0.8154  -1.9484  -0.00027  0.6825E-13  0.9407E-17  34.0000  -1.5887   514.5      -817.4       1.4548  0.1877    
  -16.000   2000.      4.000   48.11       2.017       422.5      12.515   41.4366   0.8147  -1.8220  -0.00025  0.6829E-13  0.9473E-17  32.0000  -1.4843   518.6      -769.8       1.4565  0.1830    
  -15.000   2000.      4.000   48.14       2.033       425.8      12.530   41.7504   0.8139  -1.6959  -0.00024  0.6833E-13  0.9547E-17  30.0000  -1.3803   523.1      -722.1       1.4583  0.1781    
  -14.000   2000.      4.000   48.14       2.048       428.9      12.545   42.0467   0.8132  -1.5712  -0.00022  0.6832E-13  0.9617E-17  28.0000  -1.2777   527.5      -673.9       1.4609  0.1713    
  -13.000   2000.      4.000   48.19       2.068       433.2      12.564   42.4503   0.8122  -1.4462  -0.00021  0.6840E-13  0.9712E-17  26.0000  -1.1746   533.3      -626.4       1.4627  0.1661    
  -12.000   2000.      4.000   48.25       2.091       437.9      12.586   42.9015   0.8110  -1.3221  -0.00019  0.6848E-13  0.9819E-17  24.0000  -1.0723   539.9      -579.0       1.4645  0.1607    
  -11.000   2000.      4.000   48.31       2.116       443.2      12.610   43.4070   0.8098  -1.1990  -0.00017  0.6858E-13  0.9938E-17  22.0000  -0.9709   547.4      -531.5       1.4665  0.1550    
  -10.000   2000.      4.000   48.39       2.145       449.2      12.637   43.9743   0.8083  -1.0772  -0.00016  0.6868E-13  0.1007E-16  20.0000  -0.8708   555.7      -483.9       1.4686  0.1490    
   -9.000   2000.      4.000   48.45       2.176       455.7      12.667   44.5926   0.8068  -0.9569  -0.00014  0.6877E-13  0.1022E-16  18.0000  -0.7720   564.8      -436.1       1.4711  0.1418    
   -8.000   2000.      4.000   48.55       2.212       463.3      12.701   45.3148   0.8050  -0.8384  -0.00013  0.6892E-13  0.1039E-16  16.0000  -0.6749   575.6      -388.4       1.4733  0.1353    
   -7.000   2000.      4.000   48.67       2.253       471.9      12.740   46.1275   0.8029  -0.7219  -0.00011  0.6908E-13  0.1058E-16  14.0000  -0.5797   587.7      -340.7       1.4755  0.1285    
   -6.000   2000.      4.000   48.79       2.299       481.5      12.784   47.0432   0.8006  -0.6080  -0.00009  0.6926E-13  0.1080E-16  12.0000  -0.4868   601.4      -292.8       1.4779  0.1213    
   -5.000   2000.      4.000   48.93       2.351       492.4      12.834   48.0754   0.7980  -0.4969  -0.00008  0.6945E-13  0.1104E-16  10.0000  -0.3965   617.0      -244.7       1.4803  0.1139    
   -4.000   2000.      4.000   49.09       2.409       504.6      12.890   49.2392   0.7951  -0.3891  -0.00006  0.6968E-13  0.1131E-16   8.0000  -0.3094   634.7      -196.4       1.4827  0.1063    
   -3.000   2000.      4.000   49.26       2.475       518.4      12.953   50.5510   0.7918  -0.2850  -0.00005  0.6992E-13  0.1162E-16   6.0000  -0.2257   654.8      -147.8       1.4852  0.9855E-01
   -2.000   2000.      4.000   49.45       2.550       534.0      13.024   52.0284   0.7880  -0.1852  -0.00003  0.7019E-13  0.1197E-16   4.0001  -0.1460   677.6      -98.90       1.4876  0.9070E-01
   -1.000   2000.      4.000   49.66       2.633       551.5      13.103   53.6896   0.7839  -0.0900  -0.00002  0.7048E-13  0.1236E-16   2.0001  -0.0706   703.5      -49.66       1.4899  0.8289E-01
    0.000   2000.      4.000   49.88       2.727       571.1      13.193   55.5536   0.7792   0.0000   0.00000  0.7080E-13  0.1280E-16   0.0168   0.0000   732.9       0.000       1.4922  0.7525E-01
    1.000   2000.      4.000   50.12       2.832       593.0      13.293   57.6392   0.7740   0.0845   0.00002  0.7114E-13  0.1330E-16   0.0001   0.0654   766.2       50.12       1.4942  0.6792E-01
    2.000   2000.      4.000   50.28       2.877       602.6      13.337   58.5496   0.7718   0.1669   0.00003  0.7136E-13  0.1351E-16   0.0001   0.1288   780.9       100.6       1.4914  0.5408E-01
    3.000   2000.      4.000   49.40       2.884       604.0      13.343   58.6826   0.7714   0.2453   0.00005  0.7012E-13  0.1354E-16   0.0000   0.1893   783.0       148.2       1.4564  0.4357E-01
    4.000   2000.      4.000   47.93       2.879       603.1      13.339   58.5915   0.7716   0.3179   0.00006  0.6804E-13  0.1352E-16   0.0000   0.2453   781.5       191.7       1.4034  0.3719E-01
    5.000   2000.      4.000   46.14       2.855       598.0      13.315   58.1060   0.7729   0.3858   0.00008  0.6548E-13  0.1341E-16   0.0000   0.2981   773.7       230.7       1.3395  0.3214E-01
    6.000   2000.      4.000   44.09       2.816       589.7      13.278   57.3222   0.7748   0.4486   0.00009  0.6258E-13  0.1322E-16   0.0000   0.3476   761.1       264.5       1.2678  0.2851E-01
    7.000   2000.      4.000   41.78       2.750       575.9      13.215   56.0105   0.7781   0.5079   0.00011  0.5931E-13  0.1291E-16   0.0000   0.3952   740.2       292.5       1.1885  0.2492E-01
    8.000   2000.      4.000   39.32       2.676       560.5      13.145   54.5487   0.7817   0.5613   0.00013  0.5582E-13  0.1257E-16   0.0000   0.4387   717.0       314.6       1.1059  0.2269E-01
    9.000   2000.      4.000   36.74       2.590       542.4      13.062   52.8290   0.7860   0.6097   0.00014  0.5215E-13  0.1216E-16   0.0000   0.4792   690.1       330.7       1.0210  0.2101E-01
   10.000   2000.      4.000   34.04       2.490       521.4      12.966   50.8362   0.7911   0.6529   0.00016  0.4832E-13  0.1169E-16   0.0000   0.5165   659.2       340.4       0.9344  0.2003E-01
   11.000   2000.      4.000   31.24       2.375       497.4      12.857   48.5549   0.7968   0.6908   0.00017  0.4434E-13  0.1115E-16   0.0000   0.5504   624.3       343.6       0.8468  0.1958E-01
   12.000   2000.      4.000   28.31       2.244       470.1      12.732   45.9552   0.8034   0.7226   0.00019  0.4018E-13  0.1054E-16   0.0000   0.5805   585.1       339.7       0.7576  0.1985E-01
   13.000   2000.      4.000   25.24       2.097       439.2      12.592   43.0254   0.8107   0.7471   0.00021  0.3583E-13  0.9848E-17   0.0000   0.6057   541.8       328.1       0.6671  0.2095E-01
   14.000   2000.      4.000   22.04       1.933       404.7      12.434   39.7506   0.8189   0.7625   0.00022  0.3129E-13  0.9075E-17   0.0000   0.6244   494.3       308.6       0.5756  0.2293E-01
   15.000   2000.      4.000   18.73       1.752       366.8      12.262   36.1502   0.8276   0.7658   0.00024  0.2658E-13  0.8225E-17   0.0000   0.6338   443.3       280.9       0.4842  0.2600E-01
   16.000   2000.      4.000   15.29       1.552       325.0      12.071   32.1782   0.8368   0.7528   0.00025  0.2171E-13  0.7288E-17   0.0000   0.6299   388.4       244.7       0.3926  0.2977E-01
   17.000   2000.      4.000   11.72       1.332       279.0      11.861   27.8057   0.8460   0.7140   0.00027  0.1663E-13  0.6256E-17   0.0000   0.6040   329.8       199.2       0.3007  0.3442E-01
   18.000   2000.      4.000   8.000       1.101       230.6      11.640   23.2061   0.8536   0.6245   0.00028  0.1135E-13  0.5170E-17   0.0000   0.5331   270.1       144.0       0.2105  0.4176E-01
   19.000   2000.      4.000   4.576      0.9009       188.7      11.449   19.2251   0.8572   0.4607   0.00030  0.6495E-14  0.4231E-17   0.0000   0.3950   220.1       86.94       0.1338  0.5156E-01
   20.000   2000.      4.000   1.643      0.7586       158.9      11.313   16.3928   0.8567   0.2068   0.00032  0.2332E-14  0.3562E-17   0.0000   0.1772   185.5       32.86       0.0738  0.6373E-01

